Frequency (Hz)	Level (dB)
86.132813	-63.373608
172.265625	-69.895935
258.398438	-71.080238
344.531250	-78.094528
430.664063	-83.771248
516.796875	-90.105743
602.929688	-88.753983
689.062500	-89.411751
775.195313	-89.375290
861.328125	-87.153282
947.460938	-88.379417
1033.593750	-87.604248
1119.726563	-86.246918
1205.859375	-89.936485
1291.992188	-88.752197
1378.125000	-85.417915
1464.257813	-83.310799
1550.390625	-86.185715
1636.523438	-90.627617
1722.656250	-89.877045
1808.789063	-88.786980
1894.921875	-89.284920
1981.054688	-90.135048
2067.187500	-89.184433
2153.320313	-87.400826
2239.453125	-88.047104
2325.585938	-91.926903
2411.718750	-95.259521
2497.851563	-93.622360
2583.984375	-94.231758
2670.117188	-97.083282
2756.250000	-100.715622
2842.382813	-105.914528
2928.515625	-108.872314
3014.648438	-108.353668
3100.781250	-106.200027
3186.914063	-104.463257
3273.046875	-103.253784
3359.179688	-103.919899
3445.312500	-105.344597
3531.445313	-105.561707
3617.578125	-102.571312
3703.710938	-103.925308
3789.843750	-106.373871
3875.976563	-107.755989
3962.109375	-108.134926
4048.242188	-105.539833
4134.375000	-97.816185
4220.507813	-90.245735
4306.640625	-86.162804
4392.773438	-85.908394
4478.906250	-88.986038
4565.039063	-94.841423
4651.171875	-99.010880
4737.304688	-102.067543
4823.437500	-105.360458
4909.570313	-110.986244
4995.703125	-114.003700
5081.835938	-111.709671
5167.968750	-108.243187
5254.101563	-105.564873
5340.234375	-104.177818
5426.367188	-103.274292
5512.500000	-101.046921
5598.632813	-100.326500
5684.765625	-100.731743
5770.898438	-102.701607
5857.031250	-102.935509
5943.164063	-101.221825
6029.296875	-102.471832
6115.429688	-106.940186
6201.562500	-114.709122
6287.695313	-110.369499
6373.828125	-100.975075
6459.960938	-95.571846
6546.093750	-93.585495
6632.226563	-93.542435
6718.359375	-93.841957
6804.492188	-94.898468
6890.625000	-97.571365
6976.757813	-101.048439
7062.890625	-103.736603
7149.023438	-105.154350
7235.156250	-106.430130
7321.289063	-108.460487
7407.421875	-111.525482
7493.554688	-118.569923
7579.687500	-120.937683
7665.820313	-115.993416
7751.953125	-106.586288
7838.085938	-98.772812
7924.218750	-93.799461
8010.351563	-90.080574
8096.484375	-87.852318
8182.617188	-86.977287
8268.750000	-87.403519
8354.882813	-89.875710
8441.015625	-92.699127
8527.148438	-95.739502
8613.281250	-102.088264
8699.414063	-111.556435
8785.546875	-118.836380
8871.679688	-112.095314
8957.812500	-102.746971
9043.945313	-96.142960
9130.078125	-91.411835
9216.210938	-89.476952
9302.343750	-89.467819
9388.476563	-89.644318
9474.609375	-90.749039
9560.742188	-92.709152
9646.875000	-93.631126
9733.007813	-94.873650
9819.140625	-97.057968
9905.273438	-101.129692
9991.406250	-109.103218
10077.539063	-112.975594
10163.671875	-108.430672
10249.804688	-104.285286
10335.937500	-102.350967
10422.070313	-97.678719
10508.203125	-95.820442
10594.335938	-96.126755
10680.468750	-97.074867
10766.601563	-98.343826
10852.734375	-100.757385
10938.867188	-104.028397
11025.000000	-108.763863
11111.132813	-109.623550
11197.265625	-105.551544
11283.398438	-105.333031
11369.531250	-107.469528
11455.664063	-108.682182
11541.796875	-102.922913
11627.929688	-97.110474
11714.062500	-95.066406
11800.195313	-95.898361
11886.328125	-96.258400
11972.460938	-95.620102
12058.593750	-98.114861
12144.726563	-102.308334
12230.859375	-101.214729
12316.992188	-97.928734
12403.125000	-97.773659
12489.257813	-102.101028
12575.390625	-108.880508
12661.523438	-104.122650
12747.656250	-100.817490
12833.789063	-98.841148
12919.921875	-97.326622
13006.054688	-97.768333
13092.187500	-98.028206
13178.320313	-96.282173
13264.453125	-95.877960
13350.585938	-96.950096
13436.718750	-97.588570
13522.851563	-97.338303
13608.984375	-95.712021
13695.117188	-95.021515
13781.250000	-96.174477
13867.382813	-97.353897
13953.515625	-98.916473
14039.648438	-100.190941
14125.781250	-101.018684
14211.914063	-103.463783
14298.046875	-103.999977
14384.179688	-101.900726
14470.312500	-97.222038
14556.445313	-94.397392
14642.578125	-93.518410
14728.710938	-93.317909
14814.843750	-93.501404
14900.976563	-93.942528
14987.109375	-95.133453
15073.242188	-96.364883
15159.375000	-97.421715
15245.507813	-98.012169
15331.640625	-99.126808
15417.773438	-101.815666
15503.906250	-106.078606
15590.039063	-107.736450
15676.171875	-107.925430
15762.304688	-108.400063
15848.437500	-109.785164
15934.570313	-111.659576
16020.703125	-113.448776
16106.835938	-114.763680
16192.968750	-115.600014
16279.101563	-116.900375
16365.234375	-120.890862
16451.367188	-129.584564
16537.500000	-142.322388
16623.632813	-148.693100
16709.765625	-150.599655
16795.898438	-152.040070
16882.031250	-151.887482
16968.164063	-152.832489
17054.296875	-152.062317
17140.429688	-151.766312
17226.562500	-151.899307
17312.695313	-151.217453
17398.828125	-151.031113
17484.960938	-150.938126
17571.093750	-150.431458
17657.226563	-150.811600
17743.359375	-150.935608
17829.492188	-149.574417
17915.625000	-149.589294
18001.757813	-151.069901
18087.890625	-150.976639
18174.023438	-150.860718
18260.156250	-149.276215
18346.289063	-149.474945
18432.421875	-149.790268
18518.554688	-149.957474
18604.687500	-148.838165
18690.820313	-148.872940
18776.953125	-149.170609
18863.085938	-149.267120
18949.218750	-149.550934
19035.351563	-148.586670
19121.484375	-148.404373
19207.617188	-149.140091
19293.750000	-148.336670
19379.882813	-148.107025
19466.015625	-148.755188
19552.148438	-149.174362
19638.281250	-148.541885
19724.414063	-149.103455
19810.546875	-149.206238
19896.679688	-148.438004
19982.812500	-147.931808
20068.945313	-147.854584
20155.078125	-146.819656
20241.210938	-147.918335
20327.343750	-148.159317
20413.476563	-148.019669
20499.609375	-148.277374
20585.742188	-147.372482
20671.875000	-147.252243
20758.007813	-147.833359
20844.140625	-147.778137
20930.273438	-147.613113
21016.406250	-146.983551
21102.539063	-146.219528
21188.671875	-146.266251
21274.804688	-145.564667
21360.937500	-146.187958
21447.070313	-146.596680
21533.203125	-147.158859
21619.335938	-147.342316
21705.468750	-147.285980
21791.601563	-146.036957
21877.734375	-145.686035
21963.867188	-132.708481
